time [s]   B [T]
0	0.60824
9.99001E-5	0.60558
1.998E-4	0.60281
2.997E-4	0.59993
3.996E-4	0.59699
4.995E-4	0.594
5.99401E-4	0.59092
6.99301E-4	0.58773
7.99201E-4	0.58445
8.99101E-4	0.58108
9.99001E-4	0.57764
0.0011	0.57408
0.0012	0.57046
0.0013	0.56676
0.0014	0.56297
0.0015	0.55907
0.0016	0.55504
0.0017	0.5509
0.0018	0.5467
0.0019	0.54237
0.002	0.53793
0.0021	0.53338
0.0022	0.52867
0.0023	0.52385
0.0024	0.51885
0.0025	0.51365
0.0026	0.5083
0.0027	0.50279
0.0028	0.49713
0.0029	0.49127
0.003	0.48518
0.0031	0.47892
0.0032	0.47248
0.0033	0.4658
0.0034	0.45895
0.0035	0.45188
0.0036	0.44454
0.0037	0.43687
0.0038	0.42897
0.0039	0.4209
0.004	0.41262
0.0041	0.40414
0.0042	0.39543
0.0043	0.38641
0.0044	0.37707
0.0045	0.36738
0.0046	0.3573
0.0047	0.34681
0.0048	0.336
0.0049	0.32489
0.005	0.31339
0.00509	0.30268
0.00519	0.29036
0.00529	0.27768
0.00539	0.26459
0.00549	0.25105
0.00559	0.23711
0.00569	0.22267
0.00579	0.20774
0.00589	0.19228
0.00599	0.17632
0.00609	0.15992
0.00619	0.14299
0.00629	0.12559
0.00639	0.1078
0.00649	0.08965
0.00659	0.07109
0.00669	0.05223
0.00679	0.03309
0.00689	0.01357
0.00699	-0.00629
0.00709	-0.02652
0.00719	-0.04711
0.00729	-0.06808
0.00739	-0.08942
0.00749	-0.11104
0.00759	-0.13303
0.00769	-0.15531
0.00779	-0.17789
0.00789	-0.2008
0.00799	-0.2239
0.00809	-0.24728
0.00819	-0.27097
0.00829	-0.29479
0.00839	-0.31874
0.00849	-0.34292
0.00859	-0.36719
0.00869	-0.39139
0.00879	-0.41554
0.00889	-0.43959
0.00899	-0.46344
0.00909	-0.48711
0.00919	-0.51058
0.00929	-0.5337
0.00939	-0.55658
0.00949	-0.57931
0.00959	-0.60171
0.00969	-0.6237
0.00979	-0.64516
0.00989	-0.66615
0.00999	-0.68664
0.01009	-0.70646
0.01019	-0.72558
0.01029	-0.74382
0.01039	-0.76118
0.01049	-0.77769
0.01059	-0.79323
0.01069	-0.80777
0.01079	-0.82138
0.01089	-0.83403
0.01099	-0.84566
0.01109	-0.85628
0.01119	-0.8659
0.01129	-0.87469
0.01139	-0.88274
0.01149	-0.89006
0.01159	-0.89667
0.01169	-0.90268
0.01179	-0.9082
0.01189	-0.91316
0.01199	-0.91765
0.01209	-0.92179
0.01219	-0.92558
0.01229	-0.92911
0.01239	-0.93232
0.01249	-0.93525
0.01259	-0.9379
0.01269	-0.94033
0.01279	-0.94263
0.01289	-0.94478
0.01299	-0.94686
0.01309	-0.94886
0.01319	-0.95069
0.01329	-0.95233
0.01339	-0.95384
0.01349	-0.95531
0.01359	-0.95673
0.01369	-0.95803
0.01379	-0.95926
0.01389	-0.9604
0.01399	-0.9615
0.01409	-0.96257
0.01419	-0.9636
0.01429	-0.96459
0.01439	-0.9655
0.01449	-0.96638
0.01459	-0.9672
0.01469	-0.96796
0.01479	-0.96869
0.01489	-0.96941
0.01499	-0.97014
0.01508	-0.97077
0.01518	-0.97143
0.01528	-0.97208
0.01538	-0.97273
0.01548	-0.97333
0.01558	-0.97388
0.01568	-0.9744
0.01578	-0.97488
0.01588	-0.97539
0.01598	-0.97586
0.01608	-0.97634
0.01618	-0.97681
0.01628	-0.97719
0.01638	-0.97755
0.01648	-0.97789
0.01658	-0.97822
0.01668	-0.97853
0.01678	-0.97883
0.01688	-0.97912
0.01698	-0.9794
0.01708	-0.97966
0.01718	-0.97992
0.01728	-0.98019
0.01738	-0.98042
0.01748	-0.98065
0.01758	-0.98088
0.01768	-0.98108
0.01778	-0.98124
0.01788	-0.98137
0.01798	-0.98147
0.01808	-0.98157
0.01818	-0.98169
0.01828	-0.98179
0.01838	-0.98188
0.01848	-0.98196
0.01858	-0.98201
0.01868	-0.98205
0.01878	-0.98208
0.01888	-0.98212
0.01898	-0.98214
0.01908	-0.98213
0.01918	-0.9821
0.01928	-0.98204
0.01938	-0.98198
0.01948	-0.98192
0.01958	-0.98184
0.01968	-0.98174
0.01978	-0.98164
0.01988	-0.98155
0.01998	-0.98148
0.02008	-0.9814
0.02018	-0.98131
0.02028	-0.98119
0.02038	-0.98106
0.02048	-0.98091
0.02058	-0.98076
0.02068	-0.98059
0.02078	-0.98041
0.02088	-0.98022
0.02098	-0.98003
0.02108	-0.97982
0.02118	-0.97961
0.02128	-0.97939
0.02138	-0.97915
0.02148	-0.9789
0.02158	-0.97865
0.02168	-0.97839
0.02178	-0.97812
0.02188	-0.97784
0.02198	-0.97754
0.02208	-0.97724
0.02218	-0.97694
0.02228	-0.97663
0.02238	-0.97633
0.02248	-0.97602
0.02258	-0.97571
0.02268	-0.9754
0.02278	-0.97509
0.02288	-0.97478
0.02298	-0.97446
0.02308	-0.97412
0.02318	-0.97379
0.02328	-0.97346
0.02338	-0.97312
0.02348	-0.97278
0.02358	-0.97243
0.02368	-0.97208
0.02378	-0.97172
0.02388	-0.97137
0.02398	-0.97102
0.02408	-0.97065
0.02418	-0.97028
0.02428	-0.96991
0.02438	-0.96953
0.02448	-0.96915
0.02458	-0.96877
0.02468	-0.9684
0.02478	-0.96802
0.02488	-0.96762
0.02498	-0.96724
0.02507	-0.96689
0.02517	-0.96649
0.02527	-0.96609
0.02537	-0.96569
0.02547	-0.96528
0.02557	-0.96488
0.02567	-0.96447
0.02577	-0.96405
0.02587	-0.96362
0.02597	-0.96319
0.02607	-0.96276
0.02617	-0.96233
0.02627	-0.9619
0.02637	-0.96147
0.02647	-0.96102
0.02657	-0.96058
0.02667	-0.96015
0.02677	-0.95972
0.02687	-0.95929
0.02697	-0.95884
0.02707	-0.95841
0.02717	-0.95797
0.02727	-0.95752
0.02737	-0.95708
0.02747	-0.95665
0.02757	-0.95621
0.02767	-0.95578
0.02777	-0.95534
0.02787	-0.9549
0.02797	-0.95447
0.02807	-0.95403
0.02817	-0.9536
0.02827	-0.95315
0.02837	-0.95271
0.02847	-0.95227
0.02857	-0.95183
0.02867	-0.9514
0.02877	-0.95095
0.02887	-0.9505
0.02897	-0.95006
0.02907	-0.94961
0.02917	-0.94917
0.02927	-0.94872
0.02937	-0.94827
0.02947	-0.94782
0.02957	-0.94737
0.02967	-0.94693
0.02977	-0.94648
0.02987	-0.94603
0.02997	-0.94557
0.03007	-0.94512
0.03017	-0.94467
0.03027	-0.94423
0.03037	-0.94379
0.03047	-0.94335
0.03057	-0.9429
0.03067	-0.94245
0.03077	-0.94199
0.03087	-0.94153
0.03097	-0.94109
0.03107	-0.94063
0.03117	-0.94018
0.03127	-0.93973
0.03137	-0.93927
0.03147	-0.93881
0.03157	-0.93836
0.03167	-0.93791
0.03177	-0.93746
0.03187	-0.937
0.03197	-0.93654
0.03207	-0.93608
0.03217	-0.93562
0.03227	-0.93515
0.03237	-0.93468
0.03247	-0.93423
0.03257	-0.93377
0.03267	-0.93329
0.03277	-0.93282
0.03287	-0.93235
0.03297	-0.93187
0.03307	-0.9314
0.03317	-0.93093
0.03327	-0.93046
0.03337	-0.92997
0.03347	-0.92949
0.03357	-0.929
0.03367	-0.92851
0.03377	-0.92802
0.03387	-0.92753
0.03397	-0.92704
0.03407	-0.92654
0.03417	-0.92604
0.03427	-0.92555
0.03437	-0.92506
0.03447	-0.92456
0.03457	-0.92406
0.03467	-0.92355
0.03477	-0.92304
0.03487	-0.92253
0.03497	-0.92202
0.03506	-0.92156
0.03516	-0.92105
0.03526	-0.92053
0.03536	-0.92001
0.03546	-0.91949
0.03556	-0.91895
0.03566	-0.91842
0.03576	-0.91788
0.03586	-0.91734
0.03596	-0.9168
0.03606	-0.91626
0.03616	-0.91573
0.03626	-0.91519
0.03636	-0.91464
0.03646	-0.91408
0.03656	-0.91352
0.03666	-0.91296
0.03676	-0.91239
0.03686	-0.91183
0.03696	-0.91128
0.03706	-0.9107
0.03716	-0.91012
0.03726	-0.90953
0.03736	-0.90895
0.03746	-0.90836
0.03756	-0.90776
0.03766	-0.90716
0.03776	-0.90656
0.03786	-0.90596
0.03796	-0.90534
0.03806	-0.90471
0.03816	-0.90409
0.03826	-0.90347
0.03836	-0.90283
0.03846	-0.90218
0.03856	-0.90153
0.03866	-0.90088
0.03876	-0.90023
0.03886	-0.89957
0.03896	-0.89892
0.03906	-0.89826
0.03916	-0.89759
0.03926	-0.89691
0.03936	-0.89622
0.03946	-0.89552
0.03956	-0.89481
0.03966	-0.89411
0.03976	-0.8934
0.03986	-0.89267
0.03996	-0.89194
0.04006	-0.89119
0.04016	-0.89044
0.04026	-0.88969
0.04036	-0.88893
0.04046	-0.88816
0.04056	-0.88739
0.04066	-0.88661
0.04076	-0.88582
0.04086	-0.88504
0.04096	-0.88424
0.04106	-0.88342
0.04116	-0.88259
0.04126	-0.88176
0.04136	-0.88092
0.04146	-0.88008
0.04156	-0.87923
0.04166	-0.87836
0.04176	-0.87749
0.04186	-0.87661
0.04196	-0.87572
0.04206	-0.87483
0.04216	-0.87391
0.04226	-0.87298
0.04236	-0.87203
0.04246	-0.87108
0.04256	-0.87013
0.04266	-0.86917
0.04276	-0.8682
0.04286	-0.86722
0.04296	-0.86624
0.04306	-0.86523
0.04316	-0.8642
0.04326	-0.86317
0.04336	-0.86211
0.04346	-0.86103
0.04356	-0.85996
0.04366	-0.85888
0.04376	-0.85777
0.04386	-0.85664
0.04396	-0.85549
0.04406	-0.85433
0.04416	-0.85315
0.04426	-0.85197
0.04436	-0.85077
0.04446	-0.84955
0.04456	-0.84831
0.04466	-0.84705
0.04476	-0.84578
0.04486	-0.84451
0.04496	-0.84321
0.04505	-0.84202
0.04515	-0.84068
0.04525	-0.83932
0.04535	-0.83797
0.04545	-0.83659
0.04555	-0.83516
0.04565	-0.83371
0.04575	-0.83224
0.04585	-0.83076
0.04595	-0.82925
0.04605	-0.82772
0.04615	-0.82616
0.04625	-0.82459
0.04635	-0.82297
0.04645	-0.82134
0.04655	-0.81967
0.04665	-0.81795
0.04675	-0.81622
0.04685	-0.81448
0.04695	-0.81271
0.04705	-0.81089
0.04715	-0.80906
0.04725	-0.80721
0.04735	-0.80533
0.04745	-0.8034
0.04755	-0.80143
0.04765	-0.79941
0.04775	-0.79733
0.04785	-0.79522
0.04795	-0.79307
0.04805	-0.79089
0.04815	-0.78868
0.04825	-0.78647
0.04835	-0.78424
0.04845	-0.78193
0.04855	-0.77956
0.04865	-0.77715
0.04875	-0.77466
0.04885	-0.77212
0.04895	-0.76954
0.04905	-0.76693
0.04915	-0.76427
0.04925	-0.76155
0.04935	-0.75877
0.04945	-0.75596
0.04955	-0.75309
0.04965	-0.75016
0.04975	-0.74718
0.04985	-0.74412
0.04995	-0.74098
0.05005	-0.73777
0.05015	-0.73446
0.05025	-0.73109
0.05035	-0.72766
0.05045	-0.7242
0.05055	-0.72067
0.05065	-0.71702
0.05075	-0.71327
0.05085	-0.70945
0.05095	-0.70554
0.05105	-0.70158
0.05115	-0.6975
0.05125	-0.69328
0.05135	-0.68899
0.05145	-0.68459
0.05155	-0.68011
0.05165	-0.67549
0.05175	-0.67075
0.05185	-0.66588
0.05195	-0.66087
0.05205	-0.65577
0.05215	-0.65057
0.05225	-0.64519
0.05235	-0.63966
0.05245	-0.63397
0.05255	-0.62814
0.05265	-0.62203
0.05275	-0.61572
0.05285	-0.60931
0.05295	-0.60269
0.05305	-0.59593
0.05315	-0.58902
0.05325	-0.5819
0.05335	-0.57459
0.05345	-0.56707
0.05355	-0.55933
0.05365	-0.55133
0.05375	-0.54306
0.05385	-0.53453
0.05395	-0.52577
0.05405	-0.5168
0.05415	-0.50756
0.05425	-0.49804
0.05435	-0.48824
0.05445	-0.47812
0.05455	-0.46764
0.05465	-0.45679
0.05475	-0.44559
0.05485	-0.434
0.05495	-0.42199
0.05504	-0.41083
0.05514	-0.39806
0.05524	-0.38492
0.05534	-0.37134
0.05544	-0.35733
0.05554	-0.34284
0.05564	-0.32787
0.05574	-0.31244
0.05584	-0.29658
0.05594	-0.28026
0.05604	-0.26351
0.05614	-0.24639
0.05624	-0.22884
0.05634	-0.21082
0.05644	-0.19235
0.05654	-0.17345
0.05664	-0.15416
0.05674	-0.13447
0.05684	-0.11443
0.05694	-0.09402
0.05704	-0.07325
0.05714	-0.05215
0.05724	-0.03068
0.05734	-0.00887
0.05744	0.01327
0.05754	0.03568
0.05764	0.05852
0.05774	0.08165
0.05784	0.10506
0.05794	0.12875
0.05804	0.15268
0.05814	0.17678
0.05824	0.20097
0.05834	0.22522
0.05844	0.24953
0.05854	0.27393
0.05864	0.29826
0.05874	0.32256
0.05884	0.34688
0.05894	0.37116
0.05904	0.39537
0.05914	0.41951
0.05924	0.4434
0.05934	0.46694
0.05944	0.49026
0.05954	0.5133
0.05964	0.53598
0.05974	0.55833
0.05984	0.58017
0.05994	0.60131
0.06004	0.62165
0.06014	0.64142
0.06024	0.66062
0.06034	0.67888
0.06044	0.69625
0.06054	0.7127
0.06064	0.7281
0.06074	0.74246
0.06084	0.75581
0.06094	0.76818
0.06104	0.77962
0.06114	0.79006
0.06124	0.79962
0.06134	0.80853
0.06144	0.8167
0.06154	0.82412
0.06164	0.83092
0.06174	0.83708
0.06184	0.84265
0.06194	0.84776
0.06204	0.85256
0.06214	0.85697
0.06224	0.861
0.06234	0.8648
0.06244	0.86837
0.06254	0.8717
0.06264	0.87484
0.06274	0.87778
0.06284	0.88051
0.06294	0.88307
0.06304	0.88553
0.06314	0.88787
0.06324	0.89012
0.06334	0.89226
0.06344	0.89431
0.06354	0.89627
0.06364	0.89813
0.06374	0.89996
0.06384	0.90172
0.06394	0.90339
0.06404	0.90495
0.06414	0.90644
0.06424	0.90796
0.06434	0.90944
0.06444	0.91086
0.06454	0.91222
0.06464	0.91356
0.06474	0.91489
0.06484	0.91615
0.06494	0.9174
0.06503	0.91849
0.06513	0.91971
0.06523	0.92091
0.06533	0.92211
0.06543	0.92328
0.06553	0.92437
0.06563	0.92543
0.06573	0.92644
0.06583	0.92743
0.06593	0.92844
0.06603	0.92941
0.06613	0.93035
0.06623	0.93128
0.06633	0.93219
0.06643	0.93307
0.06653	0.93394
0.06663	0.93478
0.06673	0.93558
0.06683	0.93637
0.06693	0.93715
0.06703	0.93794
0.06713	0.93872
0.06723	0.93945
0.06733	0.94018
0.06743	0.94093
0.06753	0.94167
0.06763	0.94242
0.06773	0.94312
0.06783	0.9438
0.06793	0.94446
0.06803	0.94512
0.06813	0.94575
0.06823	0.94637
0.06833	0.94698
0.06843	0.94755
0.06853	0.94811
0.06863	0.94868
0.06873	0.94923
0.06883	0.94975
0.06893	0.95027
0.06903	0.95078
0.06913	0.9513
0.06923	0.95178
0.06933	0.95224
0.06943	0.95271
0.06953	0.95314
0.06963	0.95353
0.06973	0.95393
0.06983	0.95436
0.06993	0.95478
0.07003	0.9552
0.07013	0.9556
0.07023	0.95598
0.07033	0.95635
0.07043	0.95673
0.07053	0.95711
0.07063	0.95747
0.07073	0.95782
0.07083	0.95816
0.07093	0.95847
0.07103	0.95878
0.07113	0.95906
0.07123	0.95934
0.07133	0.9596
0.07143	0.95986
0.07153	0.96012
0.07163	0.96037
0.07173	0.96062
0.07183	0.96085
0.07193	0.96108
0.07203	0.96131
0.07213	0.96154
0.07223	0.96177
0.07233	0.96199
0.07243	0.9622
0.07253	0.96241
0.07263	0.96262
0.07273	0.96283
0.07283	0.96303
0.07293	0.96322
0.07303	0.96341
0.07313	0.96359
0.07323	0.96377
0.07333	0.96395
0.07343	0.96413
0.07353	0.9643
0.07363	0.96447
0.07373	0.96463
0.07383	0.9648
0.07393	0.96497
0.07403	0.96512
0.07413	0.96527
0.07423	0.96542
0.07433	0.96556
0.07443	0.9657
0.07453	0.96584
0.07463	0.96598
0.07473	0.96611
0.07483	0.96623
0.07493	0.96635
0.07502	0.96647
0.07512	0.96659
0.07522	0.96671
0.07532	0.96682
0.07542	0.96692
0.07552	0.96702
0.07562	0.96713
0.07572	0.96722
0.07582	0.96732
0.07592	0.96741
0.07602	0.96749
0.07612	0.96758
0.07622	0.96767
0.07632	0.96775
0.07642	0.96783
0.07652	0.96791
0.07662	0.96799
0.07672	0.96808
0.07682	0.96816
0.07692	0.96825
0.07702	0.96834
0.07712	0.96841
0.07722	0.96849
0.07732	0.96858
0.07742	0.96867
0.07752	0.96876
0.07762	0.96883
0.07772	0.96891
0.07782	0.96899
0.07792	0.96907
0.07802	0.96915
0.07812	0.96923
0.07822	0.9693
0.07832	0.96937
0.07842	0.96945
0.07852	0.96954
0.07862	0.96962
0.07872	0.9697
0.07882	0.96977
0.07892	0.96985
0.07902	0.96993
0.07912	0.97001
0.07922	0.97009
0.07932	0.97016
0.07942	0.97024
0.07952	0.97031
0.07962	0.97039
0.07972	0.97048
0.07982	0.97056
0.07992	0.97064
0.08002	0.97071
0.08012	0.97078
0.08022	0.97086
0.08032	0.97093
0.08042	0.97101
0.08052	0.97108
0.08062	0.97115
0.08072	0.97122
0.08082	0.97129
0.08092	0.97136
0.08102	0.97143
0.08112	0.9715
0.08122	0.97157
0.08132	0.97165
0.08142	0.97172
0.08152	0.97179
0.08162	0.97186
0.08172	0.97194
0.08182	0.972
0.08192	0.97205
0.08202	0.97212
0.08212	0.97218
0.08222	0.97225
0.08232	0.9723
0.08242	0.97235
0.08252	0.97241
0.08262	0.97248
0.08272	0.97253
0.08282	0.97258
0.08292	0.97264
0.08302	0.97268
0.08312	0.97273
0.08322	0.97277
0.08332	0.97281
0.08342	0.97286
0.08352	0.9729
0.08362	0.97293
0.08372	0.97296
0.08382	0.973
0.08392	0.97303
0.08402	0.97306
0.08412	0.97308
0.08422	0.97311
0.08432	0.97314
0.08442	0.97316
0.08452	0.97318
0.08462	0.9732
0.08472	0.97322
0.08482	0.97324
0.08492	0.97326
0.08501	0.97328
0.08511	0.97329
0.08521	0.97329
0.08531	0.97328
0.08541	0.97327
0.08551	0.97327
0.08561	0.97325
0.08571	0.97323
0.08581	0.97321
0.08591	0.97319
0.08601	0.97317
0.08611	0.97316
0.08621	0.97315
0.08631	0.97313
0.08641	0.9731
0.08651	0.97307
0.08661	0.97303
0.08671	0.97298
0.08681	0.97293
0.08691	0.97288
0.08701	0.97282
0.08711	0.97276
0.08721	0.9727
0.08731	0.97264
0.08741	0.97259
0.08751	0.97252
0.08761	0.97245
0.08771	0.97237
0.08781	0.9723
0.08791	0.97221
0.08801	0.97212
0.08811	0.97202
0.08821	0.97193
0.08831	0.97183
0.08841	0.97173
0.08851	0.97162
0.08861	0.9715
0.08871	0.97137
0.08881	0.97124
0.08891	0.9711
0.08901	0.97096
0.08911	0.97082
0.08921	0.97066
0.08931	0.97049
0.08941	0.9703
0.08951	0.97014
0.08961	0.96997
0.08971	0.96979
0.08981	0.96959
0.08991	0.96939
0.09001	0.96918
0.09011	0.96898
0.09021	0.96876
0.09031	0.96852
0.09041	0.96829
0.09051	0.96804
0.09061	0.96778
0.09071	0.96753
0.09081	0.96727
0.09091	0.967
0.09101	0.96671
0.09111	0.96641
0.09121	0.96611
0.09131	0.96581
0.09141	0.9655
0.09151	0.96518
0.09161	0.96484
0.09171	0.96448
0.09181	0.96412
0.09191	0.96376
0.09201	0.96337
0.09211	0.96299
0.09221	0.96259
0.09231	0.96217
0.09241	0.96175
0.09251	0.96134
0.09261	0.96092
0.09271	0.96047
0.09281	0.95999
0.09291	0.95951
0.09301	0.95902
0.09311	0.95852
0.09321	0.95801
0.09331	0.95749
0.09341	0.95696
0.09351	0.95641
0.09361	0.95585
0.09371	0.95528
0.09381	0.95468
0.09391	0.95407
0.09401	0.95344
0.09411	0.95281
0.09421	0.95216
0.09431	0.95149
0.09441	0.95078
0.09451	0.95004
0.09461	0.94931
0.09471	0.94855
0.09481	0.94779
0.09491	0.94703
0.095	0.94631
0.0951	0.9455
0.0952	0.94467
0.0953	0.94382
0.0954	0.94296
0.0955	0.94208
0.0956	0.94116
0.0957	0.9402
0.0958	0.93921
0.0959	0.93821
0.096	0.93721
0.0961	0.9362
0.0962	0.93518
0.0963	0.93413
0.0964	0.93305
0.0965	0.93192
0.0966	0.93076
0.0967	0.92957
0.0968	0.92832
0.0969	0.92703
0.097	0.92571
0.0971	0.92437
0.0972	0.923
0.0973	0.9216
0.0974	0.92017
0.0975	0.91871
0.0976	0.91721
0.0977	0.9157
0.0978	0.91415
0.0979	0.91257
0.098	0.91095
0.0981	0.90927
0.0982	0.90757
0.0983	0.90584
0.0984	0.90405
0.0985	0.9022
0.0986	0.9003
0.0987	0.89835
0.0988	0.89635
0.0989	0.89429
0.099	0.89219
0.0991	0.89001
0.0992	0.88776
0.0993	0.88551
0.0994	0.88318
0.0995	0.88079
0.0996	0.87838
0.0997	0.87593
0.0998	0.87342
0.0999	0.87077
0.1	0.86804
